Radius (nm);Capture time (ps)
0;1E+244
2.74566999;1E+244
2.74567;0.434164
2.88208;0.361333
3.04311;0.315932
3.16405;0.293325
3.35801;0.279115
3.4963;0.30912
3.6956;2.08859
3.79628;4.71574
3.93138;5.5363
4.07499;5.30214
4.17362;4.92149
4.33529;4.90148
4.42584;6.73043
5.29161;0.233352
5.43716;0.227614
5.59893;0.222797
5.75269;0.221184
5.89873;0.232334
6.29842;0.883689
6.41557;1.04563
6.54147;1.1131
6.64934;1.15743
6.7662;1.20352
6.91002;1.26125
7.04502;1.42385
7.16238;1.84356
7.28225;7.11768
7.55061;0.248743
7.71238;0.243479
7.84993;0.24087
7.97982;0.254809
8.15854;0.280202
8.30577;0.353584
8.47688;0.418722
8.59801;0.399886
8.7437;0.398397
8.92205;0.414056
9.62342;0.265218
9.80151;0.265152
9.94737;0.270769
10.1098;0.293587
10.4005;0.263998
10.5541;0.253896
10.6998;0.253844
10.8536;0.25379
10.9993;0.252845
11.1531;0.251013
11.2986;0.243979
11.4442;0.239665
11.5978;0.233769
11.7517;0.236205
11.8913;0.319858
11.8987;0.288752
12.0456;0.344378
12.2003;0.392306
12.3411;0.470826
12.5108;0.609448
12.6589;0.885602
12.8041;0.236692
12.9498;0.236644
13.0955;0.236596
13.2331;0.234061
13.3949;0.229107
13.5485;0.224261
13.7021;0.217206
13.8476;0.209635
13.9931;0.20376
14.1388;0.203002
14.3012;0.217025
14.4415;0.327844
14.5917;0.647518
14.7558;0.914719
15;0.3
10000;0.3
